Data from blue spectrum_FLMS025871_15-55-33-346.txt Node
Date: Fri Nov 05 15:55:33 GMT 2021
User: php21ajb
Spectrometer: FLMS02587
Trigger mode: 0
Integration Time (sec): 2.000000E-2
Scans to average: 1
Electric dark correction enabled: true
Nonlinearity correction enabled: false
Boxcar width: 0
XAxis mode: Wavelengths
Number of Pixels in Spectrum: 2048
>>>>>Begin Spectral Data<<<<<
339.619	-75.08
340	-75.08
340.381	-75.08
340.762	-104.87
341.143	-184.3
341.524	-37.85
341.904	-99.9
342.285	-99.9
342.666	-117.28
343.046	-22.96
343.427	-77.57
343.807	-0.62
344.188	9.31
344.568	-67.64
344.949	4.34
345.329	16.75
345.71	39.09
346.09	68.88
346.47	125.97
346.85	130.93
347.23	128.45
347.611	148.31
347.991	173.13
348.371	188.02
348.751	185.54
349.131	237.66
349.511	262.48
349.891	269.93
350.27	202.91
350.65	252.55
351.03	277.38
351.41	294.75
351.79	240.14
352.169	279.86
352.549	255.04
352.928	317.09
353.308	312.12
353.687	384.11
354.067	349.36
354.446	381.62
354.826	346.87
355.205	359.28
355.584	396.52
355.964	324.54
356.343	304.68
356.722	386.59
357.101	364.25
357.48	312.12
357.859	331.98
358.238	381.62
358.617	282.34
358.996	277.38
359.375	408.93
359.754	339.43
360.133	324.54
360.512	319.57
360.891	366.73
361.269	349.36
361.648	334.46
362.027	406.44
362.405	349.36
362.784	277.38
363.162	354.32
363.541	267.45
363.919	322.05
364.298	354.32
364.676	451.12
365.054	307.16
365.433	366.73
365.811	220.29
366.189	292.27
366.567	359.28
366.945	366.73
367.323	371.7
367.701	364.25
368.079	384.11
368.457	304.68
368.835	277.38
369.213	339.43
369.591	252.55
369.969	272.41
370.346	277.38
370.724	356.8
371.102	334.46
371.479	314.61
371.857	359.28
372.235	391.55
372.612	327.02
372.99	341.91
373.367	341.91
373.744	334.46
374.122	334.46
374.499	322.05
374.876	319.57
375.254	389.07
375.631	287.3
376.008	312.12
376.385	423.82
376.762	349.36
377.139	324.54
377.516	371.7
377.893	319.57
378.27	391.55
378.647	319.57
379.024	351.84
379.4	329.5
379.777	294.75
380.154	369.21
380.53	349.36
380.907	314.61
381.284	394.03
381.66	317.09
382.037	304.68
382.413	279.86
382.79	356.8
383.166	302.2
383.542	252.55
383.919	232.7
384.295	344.39
384.671	272.41
385.047	289.79
385.423	250.07
385.799	339.43
386.176	327.02
386.552	399
386.928	354.32
387.303	354.32
387.679	274.89
388.055	331.98
388.431	354.32
388.807	287.3
389.183	287.3
389.558	292.27
389.934	349.36
390.309	297.23
390.685	341.91
391.061	416.37
391.436	329.5
391.811	284.82
392.187	292.27
392.562	279.86
392.938	426.3
393.313	423.82
393.688	341.91
394.063	354.32
394.438	389.07
394.814	356.8
395.189	371.7
395.564	324.54
395.939	341.91
396.314	339.43
396.689	297.23
397.063	324.54
397.438	262.48
397.813	399
398.188	379.14
398.563	396.52
398.937	307.16
399.312	349.36
399.686	389.07
400.061	329.5
400.435	292.27
400.81	356.8
401.184	374.18
401.559	389.07
401.933	384.11
402.307	245.11
402.682	391.55
403.056	411.41
403.43	369.21
403.804	411.41
404.178	361.77
404.552	413.89
404.926	274.89
405.3	339.43
405.674	413.89
406.048	349.36
406.422	312.12
406.796	361.77
407.169	339.43
407.543	456.09
407.917	359.28
408.291	428.78
408.664	354.32
409.038	418.86
409.411	282.34
409.785	314.61
410.158	384.11
410.531	386.59
410.905	384.11
411.278	369.21
411.651	351.84
412.025	346.87
412.398	396.52
412.771	302.2
413.144	379.14
413.517	374.18
413.89	495.8
414.263	322.05
414.636	334.46
415.009	359.28
415.382	376.66
415.755	341.91
416.127	364.25
416.5	336.95
416.873	403.96
417.245	416.37
417.618	473.46
417.991	376.66
418.363	401.48
418.736	371.7
419.108	426.3
419.48	302.2
419.853	331.98
420.225	324.54
420.597	349.36
420.97	406.44
421.342	408.93
421.714	374.18
422.086	371.7
422.458	473.46
422.83	406.44
423.202	369.21
423.574	351.84
423.946	408.93
424.318	431.27
424.69	426.3
425.061	488.35
425.433	453.6
425.805	433.75
426.177	443.68
426.548	461.05
426.92	488.35
427.291	535.51
427.663	585.16
428.034	545.44
428.406	572.75
428.777	562.82
429.148	590.12
429.519	619.91
429.891	600.05
430.262	530.55
430.633	600.05
431.004	533.03
431.375	602.53
431.746	577.71
432.117	676.99
432.488	791.17
432.859	748.97
433.23	734.08
433.601	726.64
433.971	830.88
434.342	828.4
434.713	945.06
435.083	907.83
435.454	1039.38
435.825	887.97
436.195	925.2
436.566	989.74
436.936	1039.38
437.306	1056.76
437.677	1103.92
438.047	1163.49
438.417	1141.15
438.788	1230.5
439.158	1252.84
439.528	1302.48
439.898	1367.02
440.268	1364.54
440.638	1548.21
441.008	1486.16
441.378	1640.05
441.748	1672.32
442.118	1729.41
442.487	1841.1
442.857	1746.78
443.227	1898.19
443.597	1927.97
443.966	2111.65
444.336	2111.65
444.705	2213.42
445.075	2265.54
445.444	2349.93
445.814	2585.73
446.183	2635.37
446.552	2824.01
446.922	2791.75
447.291	3037.48
447.66	3178.96
448.029	3213.7
448.398	3412.27
448.768	3655.52
449.137	3653.04
449.506	3809.41
449.875	4005.5
450.243	3936
450.612	4246.26
450.981	4323.21
451.35	4715.38
451.719	4901.54
452.087	4871.75
452.456	5137.34
452.825	5392.99
453.193	5584.11
453.562	5757.86
453.93	6110.32
454.299	6092.95
454.667	6356.05
455.035	6817.72
455.404	6765.6
455.772	6946.79
456.14	7033.66
456.508	7284.36
456.877	7396.05
457.245	7423.35
457.613	7515.19
457.981	7661.64
458.349	7907.36
458.717	7723.69
459.085	7743.54
459.452	7877.58
459.82	7604.55
460.188	7696.38
460.556	7897.44
460.923	7639.3
461.291	7557.39
461.659	7420.87
462.026	7274.43
462.394	7170.18
462.761	7199.96
463.128	6931.9
463.496	6574.47
463.863	6567.03
464.23	6435.48
464.598	6117.77
464.965	6003.59
465.332	5839.77
465.699	5636.24
466.066	5417.81
466.433	5452.56
466.8	5082.73
467.167	5000.82
467.534	4864.3
467.901	4745.16
468.268	4449.79
468.635	4506.88
469.001	4253.71
469.368	4268.6
469.735	4318.24
470.101	4042.73
470.468	4020.39
470.834	3779.62
471.201	3697.71
471.567	3712.61
471.934	3590.98
472.3	3533.9
472.666	3424.68
473.032	3317.95
473.399	3335.33
473.765	3330.36
474.131	3126.83
474.497	3156.62
474.863	3164.06
475.229	2938.19
475.595	3079.67
475.961	2908.41
476.327	2833.94
476.693	2779.34
477.058	2804.16
477.424	2761.96
477.79	2699.91
478.156	2498.86
478.521	2481.48
478.887	2340
479.252	2399.57
479.618	2312.7
479.983	2302.77
480.348	2218.38
480.714	2153.85
481.079	2138.95
481.444	1955.28
481.81	2039.67
482.175	1908.12
482.54	1875.85
482.905	1828.69
483.27	1816.28
483.635	1759.19
484	1853.51
484.365	1712.03
484.73	1590.41
485.095	1563.11
485.459	1496.09
485.824	1518.43
486.189	1381.91
486.553	1471.27
486.918	1496.09
487.283	1359.57
487.647	1349.64
488.012	1367.02
488.376	1292.56
488.74	1300
489.105	1255.32
489.469	1185.83
489.833	1185.83
490.198	1059.24
490.562	1151.08
490.926	1059.24
491.29	1153.56
491.654	1014.56
492.018	1026.97
492.382	1007.11
492.746	1031.93
493.11	1034.42
493.474	984.77
493.837	1044.35
494.201	930.17
494.565	947.54
494.928	900.38
495.292	905.35
495.656	915.28
496.019	863.15
496.383	845.78
496.746	793.65
497.109	746.49
497.473	781.24
497.836	729.12
498.199	736.56
498.563	798.62
498.926	756.42
499.289	709.26
499.652	716.71
500.015	637.28
500.378	652.17
500.741	627.35
501.104	701.81
501.467	701.81
501.829	607.5
502.192	659.62
502.555	632.32
502.918	570.26
503.28	590.12
503.643	652.17
504.005	523.1
504.368	555.37
504.73	518.14
505.093	597.57
505.455	629.83
505.817	540.48
506.18	614.94
506.542	567.78
506.904	513.18
507.266	562.82
507.628	533.03
507.991	535.51
508.353	488.35
508.715	466.02
509.076	490.84
509.438	505.73
509.8	525.59
510.162	508.21
510.524	456.09
510.885	473.46
511.247	525.59
511.609	396.52
511.97	418.86
512.332	441.19
512.693	431.27
513.055	480.91
513.416	520.62
513.778	503.25
514.139	458.57
514.5	513.18
514.861	438.71
515.223	503.25
515.584	401.48
515.945	394.03
516.306	461.05
516.667	493.32
517.028	510.69
517.389	468.5
517.75	386.59
518.11	523.1
518.471	505.73
518.832	443.68
519.193	448.64
519.553	456.09
519.914	461.05
520.274	401.48
520.635	480.91
520.995	423.82
521.356	416.37
521.716	438.71
522.076	394.03
522.437	458.57
522.797	391.55
523.157	361.77
523.517	428.78
523.877	401.48
524.238	408.93
524.598	379.14
524.958	438.71
525.317	433.75
525.677	453.6
526.037	379.14
526.397	508.21
526.757	423.82
527.116	510.69
527.476	396.52
527.836	478.43
528.195	394.03
528.555	401.48
528.914	369.21
529.274	361.77
529.633	403.96
529.993	327.02
530.352	508.21
530.711	413.89
531.07	379.14
531.429	396.52
531.789	475.94
532.148	483.39
532.507	436.23
532.866	433.75
533.225	441.19
533.584	381.62
533.942	416.37
534.301	431.27
534.66	446.16
535.019	463.53
535.377	369.21
535.736	391.55
536.095	458.57
536.453	411.41
536.812	456.09
537.17	438.71
537.528	408.93
537.887	399
538.245	374.18
538.603	356.8
538.962	468.5
539.32	518.14
539.678	483.39
540.036	441.19
540.394	436.23
540.752	483.39
541.11	557.85
541.468	540.48
541.826	433.75
542.184	525.59
542.541	580.19
542.899	493.32
543.257	533.03
543.614	500.76
543.972	451.12
544.33	552.89
544.687	510.69
545.045	555.37
545.402	652.17
545.759	657.14
546.117	560.34
546.474	547.92
546.831	525.59
547.188	490.84
547.546	433.75
547.903	453.6
548.26	389.07
548.617	535.51
548.974	394.03
549.331	401.48
549.687	376.66
550.044	458.57
550.401	436.23
550.758	475.94
551.114	394.03
551.471	386.59
551.828	478.43
552.184	366.73
552.541	396.52
552.897	411.41
553.254	396.52
553.61	334.46
553.966	451.12
554.323	411.41
554.679	478.43
555.035	376.66
555.391	441.19
555.747	413.89
556.103	433.75
556.459	354.32
556.815	416.37
557.171	533.03
557.527	356.8
557.883	371.7
558.239	361.77
558.594	396.52
558.95	461.05
559.306	396.52
559.661	389.07
560.017	453.6
560.372	386.59
560.728	354.32
561.083	396.52
561.438	443.68
561.794	386.59
562.149	361.77
562.504	411.41
562.859	381.62
563.215	406.44
563.57	431.27
563.925	394.03
564.28	438.71
564.635	354.32
564.99	446.16
565.344	473.46
565.699	371.7
566.054	379.14
566.409	396.52
566.763	406.44
567.118	371.7
567.473	468.5
567.827	339.43
568.182	376.66
568.536	371.7
568.891	453.6
569.245	384.11
569.599	344.39
569.953	411.41
570.308	339.43
570.662	361.77
571.016	461.05
571.37	416.37
571.724	428.78
572.078	379.14
572.432	428.78
572.786	493.32
573.14	411.41
573.494	408.93
573.847	279.86
574.201	403.96
574.555	331.98
574.908	423.82
575.262	448.64
575.615	349.36
575.969	391.55
576.322	384.11
576.676	421.34
577.029	433.75
577.382	379.14
577.736	369.21
578.089	381.62
578.442	448.64
578.795	336.95
579.148	389.07
579.501	403.96
579.854	453.6
580.207	339.43
580.56	431.27
580.913	423.82
581.265	436.23
581.618	322.05
581.971	428.78
582.324	493.32
582.676	351.84
583.029	441.19
583.381	453.6
583.734	379.14
584.086	401.48
584.438	324.54
584.791	389.07
585.143	490.84
585.495	413.89
585.847	438.71
586.2	485.87
586.552	448.64
586.904	473.46
587.256	431.27
587.608	453.6
587.959	436.23
588.311	488.35
588.663	426.3
589.015	399
589.367	366.73
589.718	470.98
590.07	423.82
590.421	406.44
590.773	453.6
591.124	456.09
591.476	394.03
591.827	436.23
592.179	466.02
592.53	436.23
592.881	386.59
593.232	376.66
593.584	426.3
593.935	371.7
594.286	351.84
594.637	391.55
594.988	451.12
595.339	431.27
595.689	473.46
596.04	463.53
596.391	364.25
596.742	339.43
597.092	428.78
597.443	470.98
597.794	421.34
598.144	426.3
598.495	418.86
598.845	433.75
599.196	443.68
599.546	384.11
599.896	475.94
600.247	413.89
600.597	406.44
600.947	386.59
601.297	346.87
601.647	351.84
601.997	361.77
602.347	411.41
602.697	376.66
603.047	376.66
603.397	389.07
603.747	369.21
604.096	399
604.446	381.62
604.796	351.84
605.145	408.93
605.495	413.89
605.844	428.78
606.194	374.18
606.543	418.86
606.893	423.82
607.242	351.84
607.591	314.61
607.94	376.66
608.29	394.03
608.639	466.02
608.988	413.89
609.337	461.05
609.686	530.55
610.035	550.41
610.384	540.48
610.733	550.41
611.081	562.82
611.43	518.14
611.779	508.21
612.127	503.25
612.476	473.46
612.825	466.02
613.173	468.5
613.522	493.32
613.87	451.12
614.218	490.84
614.567	431.27
614.915	458.57
615.263	331.98
615.611	423.82
615.96	448.64
616.308	403.96
616.656	403.96
617.004	359.28
617.352	461.05
617.7	428.78
618.047	426.3
618.395	396.52
618.743	309.64
619.091	413.89
619.438	433.75
619.786	436.23
620.134	421.34
620.481	418.86
620.829	371.7
621.176	436.23
621.523	341.91
621.871	403.96
622.218	369.21
622.565	413.89
622.912	386.59
623.259	349.36
623.607	386.59
623.954	428.78
624.301	426.3
624.648	416.37
624.994	389.07
625.341	341.91
625.688	389.07
626.035	480.91
626.382	406.44
626.728	294.75
627.075	344.39
627.421	408.93
627.768	418.86
628.114	411.41
628.461	381.62
628.807	391.55
629.154	394.03
629.5	418.86
629.846	448.64
630.192	349.36
630.538	394.03
630.884	336.95
631.231	364.25
631.577	389.07
631.922	319.57
632.268	346.87
632.614	436.23
632.96	371.7
633.306	438.71
633.651	384.11
633.997	431.27
634.343	371.7
634.688	389.07
635.034	319.57
635.379	361.77
635.725	438.71
636.07	403.96
636.415	374.18
636.761	468.5
637.106	394.03
637.451	374.18
637.796	391.55
638.141	361.77
638.486	428.78
638.831	411.41
639.176	282.34
639.521	349.36
639.866	384.11
640.211	369.21
640.555	334.46
640.9	468.5
641.245	374.18
641.589	436.23
641.934	423.82
642.278	391.55
642.623	403.96
642.967	386.59
643.312	366.73
643.656	341.91
644	498.28
644.344	376.66
644.689	356.8
645.033	317.09
645.377	403.96
645.721	299.71
646.065	322.05
646.409	366.73
646.753	406.44
647.096	396.52
647.44	399
647.784	413.89
648.128	331.98
648.471	361.77
648.815	381.62
649.158	364.25
649.502	302.2
649.845	389.07
650.189	284.82
650.532	384.11
650.875	381.62
651.218	359.28
651.562	399
651.905	346.87
652.248	470.98
652.591	329.5
652.934	384.11
653.277	359.28
653.62	381.62
653.963	394.03
654.305	349.36
654.648	421.34
654.991	408.93
655.334	374.18
655.676	282.34
656.019	364.25
656.361	488.35
656.704	418.86
657.046	327.02
657.389	314.61
657.731	416.37
658.073	379.14
658.415	364.25
658.757	331.98
659.1	371.7
659.442	282.34
659.784	433.75
660.126	376.66
660.468	423.82
660.809	423.82
661.151	384.11
661.493	376.66
661.835	346.87
662.177	376.66
662.518	361.77
662.86	371.7
663.201	366.73
663.543	312.12
663.884	431.27
664.226	423.82
664.567	423.82
664.908	391.55
665.249	399
665.591	369.21
665.932	366.73
666.273	361.77
666.614	403.96
666.955	379.14
667.296	448.64
667.637	302.2
667.978	408.93
668.318	416.37
668.659	334.46
669	304.68
669.341	364.25
669.681	384.11
670.022	361.77
670.362	401.48
670.703	416.37
671.043	366.73
671.383	366.73
671.724	324.54
672.064	389.07
672.404	346.87
672.744	391.55
673.085	371.7
673.425	331.98
673.765	354.32
674.105	361.77
674.444	389.07
674.784	423.82
675.124	379.14
675.464	317.09
675.804	339.43
676.143	418.86
676.483	441.19
676.823	344.39
677.162	426.3
677.501	379.14
677.841	319.57
678.18	354.32
678.52	312.12
678.859	371.7
679.198	403.96
679.537	379.14
679.876	426.3
680.215	418.86
680.555	463.53
680.894	381.62
681.232	389.07
681.571	366.73
681.91	354.32
682.249	376.66
682.588	324.54
682.926	329.5
683.265	341.91
683.604	336.95
683.942	401.48
684.281	371.7
684.619	428.78
684.957	354.32
685.296	341.91
685.634	364.25
685.972	403.96
686.31	374.18
686.649	356.8
686.987	364.25
687.325	341.91
687.663	371.7
688.001	421.34
688.338	361.77
688.676	396.52
689.014	354.32
689.352	299.71
689.69	309.64
690.027	354.32
690.365	371.7
690.702	331.98
691.04	394.03
691.377	314.61
691.715	336.95
692.052	369.21
692.389	379.14
692.726	386.59
693.064	371.7
693.401	386.59
693.738	379.14
694.075	324.54
694.412	336.95
694.749	309.64
695.086	381.62
695.423	408.93
695.759	436.23
696.096	381.62
696.433	399
696.769	394.03
697.106	299.71
697.443	366.73
697.779	294.75
698.116	374.18
698.452	366.73
698.788	399
699.125	411.41
699.461	401.48
699.797	351.84
700.133	317.09
700.469	394.03
700.805	399
701.141	379.14
701.477	349.36
701.813	307.16
702.149	396.52
702.485	359.28
702.82	448.64
703.156	359.28
703.492	346.87
703.827	336.95
704.163	344.39
704.498	463.53
704.834	359.28
705.169	406.44
705.505	312.12
705.84	446.16
706.175	331.98
706.51	389.07
706.845	391.55
707.18	403.96
707.515	411.41
707.85	329.5
708.185	413.89
708.52	408.93
708.855	331.98
709.19	408.93
709.525	319.57
709.859	346.87
710.194	418.86
710.529	389.07
710.863	379.14
711.198	309.64
711.532	441.19
711.866	423.82
712.201	369.21
712.535	374.18
712.869	408.93
713.203	329.5
713.537	411.41
713.872	255.04
714.206	302.2
714.54	369.21
714.873	354.32
715.207	304.68
715.541	386.59
715.875	384.11
716.209	403.96
716.542	470.98
716.876	366.73
717.21	381.62
717.543	376.66
717.877	327.02
718.21	389.07
718.543	426.3
718.877	324.54
719.21	381.62
719.543	366.73
719.876	418.86
720.209	331.98
720.542	406.44
720.875	359.28
721.208	381.62
721.541	354.32
721.874	423.82
722.207	376.66
722.54	359.28
722.872	399
723.205	426.3
723.538	346.87
723.87	431.27
724.203	403.96
724.535	319.57
724.868	351.84
725.2	336.95
725.532	384.11
725.865	376.66
726.197	364.25
726.529	374.18
726.861	366.73
727.193	401.48
727.525	356.8
727.857	346.87
728.189	336.95
728.521	366.73
728.853	324.54
729.184	421.34
729.516	381.62
729.848	381.62
730.179	312.12
730.511	336.95
730.842	379.14
731.174	394.03
731.505	344.39
731.836	369.21
732.168	336.95
732.499	324.54
732.83	341.91
733.161	391.55
733.492	354.32
733.823	336.95
734.154	396.52
734.485	319.57
734.816	403.96
735.147	406.44
735.478	331.98
735.808	356.8
736.139	334.46
736.47	421.34
736.8	381.62
737.131	339.43
737.461	267.45
737.792	381.62
738.122	413.89
738.452	349.36
738.782	374.18
739.113	366.73
739.443	314.61
739.773	356.8
740.103	384.11
740.433	371.7
740.763	336.95
741.093	411.41
741.423	351.84
741.752	441.19
742.082	314.61
742.412	366.73
742.742	413.89
743.071	324.54
743.401	384.11
743.73	356.8
744.06	341.91
744.389	331.98
744.718	371.7
745.048	426.3
745.377	361.77
745.706	379.14
746.035	319.57
746.364	413.89
746.693	391.55
747.022	304.68
747.351	374.18
747.68	339.43
748.009	416.37
748.338	428.78
748.666	386.59
748.995	401.48
749.323	339.43
749.652	381.62
749.981	389.07
750.309	346.87
750.637	334.46
750.966	403.96
751.294	329.5
751.622	418.86
751.95	421.34
752.279	361.77
752.607	416.37
752.935	344.39
753.263	389.07
753.591	339.43
753.919	394.03
754.246	371.7
754.574	317.09
754.902	324.54
755.23	423.82
755.557	361.77
755.885	369.21
756.212	381.62
756.54	456.09
756.867	312.12
757.195	354.32
757.522	329.5
757.849	349.36
758.176	391.55
758.503	408.93
758.831	351.84
759.158	399
759.485	403.96
759.812	389.07
760.138	339.43
760.465	403.96
760.792	418.86
761.119	406.44
761.446	403.96
761.772	309.64
762.099	366.73
762.425	319.57
762.752	322.05
763.078	401.48
763.405	478.43
763.731	361.77
764.057	334.46
764.383	389.07
764.71	299.71
765.036	314.61
765.362	369.21
765.688	376.66
766.014	354.32
766.34	314.61
766.665	381.62
766.991	274.89
767.317	366.73
767.643	366.73
767.968	346.87
768.294	329.5
768.619	396.52
768.945	346.87
769.27	366.73
769.596	312.12
769.921	344.39
770.246	351.84
770.572	307.16
770.897	466.02
771.222	369.21
771.547	346.87
771.872	344.39
772.197	386.59
772.522	406.44
772.847	359.28
773.171	416.37
773.496	381.62
773.821	361.77
774.146	346.87
774.47	384.11
774.795	292.27
775.119	384.11
775.444	369.21
775.768	376.66
776.092	287.3
776.417	379.14
