Data from orange spectrum_FLMS025871_15-54-05-046.txt Node
Date: Fri Nov 05 15:54:05 GMT 2021
User: php21ajb
Spectrometer: FLMS02587
Trigger mode: 0
Integration Time (sec): 2.000000E-2
Scans to average: 1
Electric dark correction enabled: true
Nonlinearity correction enabled: false
Boxcar width: 0
XAxis mode: Wavelengths
Number of Pixels in Spectrum: 2048
>>>>>Begin Spectral Data<<<<<
339.619	-35.99
340	-35.99
340.381	-35.99
340.762	-107.97
341.143	-103.01
341.524	-40.95
341.904	-105.49
342.285	-98.04
342.666	-55.85
343.046	-83.15
343.427	-93.08
343.807	-55.85
344.188	-35.99
344.568	-6.21
344.949	-8.69
345.329	65.78
345.71	53.37
346.09	8.69
346.47	137.76
346.85	162.58
347.23	155.13
347.611	197.33
347.991	174.99
348.371	125.35
348.751	301.58
349.131	219.67
349.511	214.7
349.891	239.52
350.27	209.74
350.65	356.18
351.03	286.68
351.41	294.13
351.79	286.68
352.169	291.65
352.549	264.34
352.928	304.06
353.308	249.45
353.687	393.41
354.067	301.58
354.446	343.77
354.826	368.59
355.205	361.15
355.584	358.66
355.964	351.22
356.343	353.7
356.722	321.43
357.101	306.54
357.48	435.61
357.859	371.07
358.238	338.81
358.617	331.36
358.996	338.81
359.375	333.84
359.754	356.18
360.133	390.93
360.512	346.25
360.891	381
361.269	388.45
361.648	368.59
362.027	331.36
362.405	284.2
362.784	316.47
363.162	346.25
363.541	341.29
363.919	366.11
364.298	338.81
364.676	343.77
365.054	328.88
365.433	306.54
365.811	318.95
366.189	361.15
366.567	403.34
366.945	316.47
367.323	358.66
367.701	336.33
368.079	356.18
368.457	299.09
368.835	209.74
369.213	346.25
369.591	398.38
369.969	294.13
370.346	331.36
370.724	336.33
371.102	383.49
371.479	246.97
371.857	403.34
372.235	291.65
372.612	254.42
372.99	353.7
373.367	373.56
373.744	333.84
374.122	376.04
374.499	299.09
374.876	338.81
375.254	363.63
375.631	309.02
376.008	338.81
376.385	301.58
376.762	390.93
377.139	323.91
377.516	301.58
377.893	361.15
378.27	366.11
378.647	356.18
379.024	323.91
379.4	361.15
379.777	356.18
380.154	338.81
380.53	284.2
380.907	338.81
381.284	361.15
381.66	284.2
382.037	281.72
382.413	289.17
382.79	346.25
383.166	376.04
383.542	388.45
383.919	331.36
384.295	351.22
384.671	254.42
385.047	348.74
385.423	266.83
385.799	351.22
386.176	291.65
386.552	428.16
386.928	356.18
387.303	363.63
387.679	356.18
388.055	321.43
388.431	346.25
388.807	343.77
389.183	393.41
389.558	348.74
389.934	371.07
390.309	348.74
390.685	289.17
391.061	299.09
391.436	326.4
391.811	301.58
392.187	326.4
392.562	435.61
392.938	366.11
393.313	289.17
393.688	356.18
394.063	343.77
394.438	368.59
394.814	323.91
395.189	326.4
395.564	403.34
395.939	363.63
396.314	425.68
396.689	388.45
397.063	388.45
397.438	343.77
397.813	313.99
398.188	353.7
398.563	346.25
398.937	341.29
399.312	428.16
399.686	433.13
400.061	388.45
400.435	423.2
400.81	321.43
401.184	415.75
401.559	373.56
401.933	351.22
402.307	368.59
402.682	321.43
403.056	338.81
403.43	368.59
403.804	376.04
404.178	331.36
404.552	381
404.926	376.04
405.3	346.25
405.674	239.52
406.048	376.04
406.422	336.33
406.796	358.66
407.169	393.41
407.543	286.68
407.917	309.02
408.291	328.88
408.664	336.33
409.038	403.34
409.411	383.49
409.785	400.86
410.158	351.22
410.531	393.41
410.905	343.77
411.278	328.88
411.651	331.36
412.025	346.25
412.398	338.81
412.771	249.45
413.144	291.65
413.517	366.11
413.89	457.95
414.263	410.79
414.636	301.58
415.009	331.36
415.382	378.52
415.755	371.07
416.127	381
416.5	385.97
416.873	341.29
417.245	376.04
417.618	306.54
417.991	385.97
418.363	343.77
418.736	400.86
419.108	353.7
419.48	408.31
419.853	393.41
420.225	328.88
420.597	400.86
420.97	378.52
421.342	346.25
421.714	423.2
422.086	381
422.458	361.15
422.83	346.25
423.202	289.17
423.574	438.09
423.946	311.5
424.318	321.43
424.69	353.7
425.061	371.07
425.433	376.04
425.805	351.22
426.177	395.9
426.548	358.66
426.92	346.25
427.291	348.74
427.663	346.25
428.034	373.56
428.406	395.9
428.777	279.24
429.148	326.4
429.519	284.2
429.891	373.56
430.262	289.17
430.633	376.04
431.004	328.88
431.375	338.81
431.746	318.95
432.117	326.4
432.488	418.23
432.859	356.18
433.23	410.79
433.601	286.68
433.971	353.7
434.342	435.61
434.713	433.13
435.083	455.47
435.454	443.06
435.825	353.7
436.195	388.45
436.566	333.84
436.936	343.77
437.306	368.59
437.677	368.59
438.047	395.9
438.417	373.56
438.788	388.45
439.158	306.54
439.528	381
439.898	363.63
440.268	333.84
440.638	371.07
441.008	333.84
441.378	356.18
441.748	323.91
442.118	378.52
442.487	326.4
442.857	368.59
443.227	328.88
443.597	309.02
443.966	390.93
444.336	353.7
444.705	371.07
445.075	410.79
445.444	321.43
445.814	376.04
446.183	358.66
446.552	425.68
446.922	341.29
447.291	321.43
447.66	323.91
448.029	346.25
448.398	318.95
448.768	381
449.137	390.93
449.506	358.66
449.875	373.56
450.243	425.68
450.612	410.79
450.981	385.97
451.35	440.57
451.719	443.06
452.087	398.38
452.456	316.47
452.825	418.23
453.193	311.5
453.562	343.77
453.93	415.75
454.299	408.31
454.667	475.32
455.035	385.97
455.404	398.38
455.772	398.38
456.14	316.47
456.508	388.45
456.877	343.77
457.245	385.97
457.613	420.72
457.981	373.56
458.349	336.33
458.717	358.66
459.085	388.45
459.452	395.9
459.82	333.84
460.188	433.13
460.556	376.04
460.923	455.47
461.291	358.66
461.659	398.38
462.026	373.56
462.394	338.81
462.761	279.24
463.128	351.22
463.496	400.86
463.863	363.63
464.23	341.29
464.598	341.29
464.965	425.68
465.332	400.86
465.699	448.02
466.066	381
466.433	351.22
466.8	398.38
467.167	475.32
467.534	311.5
467.901	405.82
468.268	505.11
468.635	361.15
469.001	318.95
469.368	366.11
469.735	393.41
470.101	358.66
470.468	390.93
470.834	341.29
471.201	393.41
471.567	388.45
471.934	465.39
472.3	420.72
472.666	381
473.032	408.31
473.399	440.57
473.765	378.52
474.131	425.68
474.497	331.36
474.863	420.72
475.229	385.97
475.595	460.43
475.961	423.2
476.327	420.72
476.693	341.29
477.058	423.2
477.424	410.79
477.79	393.41
478.156	420.72
478.521	475.32
478.887	423.2
479.252	455.47
479.618	378.52
479.983	395.9
480.348	433.13
480.714	448.02
481.079	373.56
481.444	460.43
481.81	378.52
482.175	423.2
482.54	420.72
482.905	418.23
483.27	331.36
483.635	520
484	413.27
484.365	524.97
484.73	410.79
485.095	510.07
485.459	470.36
485.824	552.27
486.189	582.05
486.553	564.68
486.918	569.64
487.283	515.04
487.647	542.34
488.012	448.02
488.376	557.23
488.74	510.07
489.105	596.95
489.469	641.62
489.833	510.07
490.198	599.43
490.562	529.93
490.926	619.29
491.29	582.05
491.654	559.71
492.018	654.03
492.382	654.03
492.746	629.21
493.11	591.98
493.474	604.39
493.837	631.7
494.201	601.91
494.565	594.46
494.928	691.27
495.292	626.73
495.656	706.16
496.019	676.37
496.383	701.19
496.746	750.84
497.109	798
497.473	763.25
497.836	738.43
498.199	894.8
498.563	860.05
498.926	867.5
499.289	820.34
499.652	907.21
500.015	882.39
500.378	954.37
500.741	927.07
501.104	974.23
501.467	1046.21
501.829	1008.98
502.192	966.78
502.555	1075.99
502.918	1075.99
503.28	1200.1
503.643	1247.26
504.005	1180.24
504.368	1200.1
504.73	1190.17
505.093	1282.01
505.455	1341.58
505.817	1257.19
506.18	1391.22
506.542	1341.58
506.904	1363.92
507.266	1478.09
507.628	1515.32
507.991	1507.88
508.353	1547.59
508.715	1552.56
509.076	1545.11
509.438	1669.22
509.8	1634.47
510.162	1649.36
510.524	1681.63
510.885	1753.61
511.247	1716.38
511.609	1813.18
511.97	1746.16
512.332	1840.48
512.693	1828.07
513.055	1842.96
513.416	1713.89
513.778	1897.57
514.139	1770.98
514.5	1890.12
514.861	1902.53
515.223	1902.53
515.584	1934.8
515.945	1775.95
516.306	1939.76
516.667	1862.82
517.028	1808.21
517.389	1852.89
517.75	1842.96
518.11	1895.09
518.471	1847.93
518.832	1820.62
519.193	1833.03
519.553	1703.96
519.914	1808.21
520.274	1716.38
520.635	1726.3
520.995	1778.43
521.356	1694.04
521.716	1701.48
522.076	1604.68
522.437	1674.18
522.797	1627.02
523.157	1694.04
523.517	1547.59
523.877	1569.93
524.238	1545.11
524.598	1579.86
524.958	1555.04
525.317	1366.4
525.677	1532.7
526.037	1485.54
526.397	1388.74
526.757	1356.47
527.116	1460.72
527.476	1319.24
527.836	1351.51
528.195	1242.29
528.555	1291.94
528.914	1304.35
529.274	1272.08
529.633	1239.81
529.993	1200.1
530.352	1185.2
530.711	1339.1
531.07	1224.92
531.429	1182.72
531.789	1217.47
532.148	1185.2
532.507	1138.04
532.866	1100.81
533.225	1085.92
533.584	1152.94
533.942	1085.92
534.301	1133.08
534.66	1098.33
535.019	1071.03
535.377	1056.14
535.736	1100.81
536.095	956.85
536.453	969.26
536.812	984.15
537.17	1056.14
537.528	909.69
537.887	971.74
538.245	944.44
538.603	907.21
538.962	991.6
539.32	1013.94
539.678	934.51
540.036	897.28
540.394	981.67
540.752	974.23
541.11	956.85
541.468	941.96
541.826	1021.39
542.184	964.3
542.541	1001.53
542.899	872.46
543.257	944.44
543.614	924.58
543.972	872.46
544.33	909.69
544.687	860.05
545.045	897.28
545.402	1115.71
545.759	1018.9
546.117	874.94
546.474	889.83
546.831	827.78
547.188	817.85
547.546	805.44
547.903	822.82
548.26	770.69
548.617	698.71
548.974	778.14
549.331	698.71
549.687	691.27
550.044	726.02
550.401	659
550.758	609.36
551.114	639.14
551.471	631.7
551.828	678.86
552.184	654.03
552.541	673.89
552.897	604.39
553.254	631.7
553.61	609.36
553.966	626.73
554.323	651.55
554.679	601.91
555.035	527.45
555.391	544.82
555.747	594.46
556.103	552.27
556.459	497.66
556.815	524.97
557.171	611.84
557.527	562.2
557.883	527.45
558.239	539.86
558.594	482.77
558.95	448.02
559.306	532.41
559.661	559.71
560.017	554.75
560.372	557.23
560.728	554.75
561.083	457.95
561.438	445.54
561.794	502.63
562.149	539.86
562.504	512.55
562.859	520
563.215	537.38
563.57	507.59
563.925	485.25
564.28	522.48
564.635	520
564.99	559.71
565.344	534.89
565.699	433.13
566.054	522.48
566.409	460.43
566.763	450.5
567.118	462.91
567.473	403.34
567.827	472.84
568.182	544.82
568.536	475.32
568.891	413.27
569.245	443.06
569.599	418.23
569.953	567.16
570.308	418.23
570.662	452.98
571.016	467.88
571.37	455.47
571.724	435.61
572.078	445.54
572.432	448.02
572.786	435.61
573.14	497.66
573.494	443.06
573.847	443.06
574.201	435.61
574.555	433.13
574.908	450.5
575.262	492.7
575.615	522.48
575.969	467.88
576.322	497.66
576.676	470.36
577.029	477.81
577.382	502.63
577.736	455.47
578.089	544.82
578.442	425.68
578.795	450.5
579.148	512.55
579.501	517.52
579.854	492.7
580.207	472.84
580.56	490.22
580.913	522.48
581.265	465.39
581.618	517.52
581.971	462.91
582.324	460.43
582.676	542.34
583.029	537.38
583.381	549.79
583.734	398.38
584.086	485.25
584.438	532.41
584.791	440.57
585.143	485.25
585.495	515.04
585.847	532.41
586.2	537.38
586.552	584.54
586.904	537.38
587.256	542.34
587.608	572.13
587.959	490.22
588.311	577.09
588.663	539.86
589.015	497.66
589.367	467.88
589.718	559.71
590.07	554.75
590.421	574.61
590.773	604.39
591.124	589.5
591.476	554.75
591.827	601.91
592.179	492.7
592.53	527.45
592.881	529.93
593.232	606.87
593.584	552.27
593.935	661.48
594.286	668.93
594.637	574.61
594.988	644.11
595.339	616.8
595.689	676.37
596.04	693.75
596.391	631.7
596.742	596.95
597.092	639.14
597.443	758.28
597.794	770.69
598.144	691.27
598.495	812.89
598.845	713.6
599.196	867.5
599.546	716.09
599.896	850.12
600.247	820.34
600.597	830.26
600.947	812.89
601.297	912.17
601.647	810.41
601.997	765.73
602.347	994.08
602.697	934.51
603.047	974.23
603.397	969.26
603.747	1056.14
604.096	961.82
604.446	986.64
604.796	1041.24
605.145	1138.04
605.495	1100.81
605.844	1157.9
606.194	1170.31
606.543	1262.15
606.893	1138.04
607.242	1227.4
607.591	1242.29
607.94	1376.33
608.29	1259.67
608.639	1401.15
608.988	1361.43
609.337	1453.27
609.686	1535.18
610.035	1594.75
610.384	1656.8
610.733	1800.77
611.081	1895.09
611.43	1788.36
611.779	1783.39
612.127	1852.89
612.476	1954.66
612.825	1967.07
613.173	1954.66
613.522	2026.64
613.87	2135.85
614.218	2160.67
614.567	2168.12
614.915	2175.56
615.263	2307.12
615.611	2465.97
615.96	2453.56
616.308	2545.4
616.656	2590.08
617.004	2739
617.352	2729.07
617.7	2987.21
618.047	3126.21
618.395	3004.59
618.743	3237.91
619.091	3371.94
619.438	3441.44
619.786	3436.47
620.134	3669.79
620.481	3711.99
620.829	3833.61
621.176	4116.57
621.523	4451.65
621.871	4300.25
622.218	4429.32
622.565	4680.01
622.912	4811.56
623.259	5116.86
623.607	5176.43
623.954	5484.21
624.301	5518.96
624.648	5556.19
624.994	5995.52
625.341	5990.56
625.688	6159.34
626.035	6226.36
626.382	6638.39
626.728	6683.07
627.075	6665.69
627.421	7042.97
627.768	7181.97
628.114	7288.7
628.461	7231.61
628.807	7390.47
629.154	7603.93
629.5	7400.39
629.846	7494.71
630.192	7450.04
630.538	7484.79
630.884	7070.27
631.231	6963.54
631.577	6767.46
631.922	6482.02
632.268	6161.82
632.614	6114.66
632.96	5747.31
633.306	5437.05
633.651	5010.13
633.997	4811.56
634.343	4528.6
634.688	4359.82
635.034	3957.72
635.379	3635.04
635.725	3386.83
636.07	3170.89
636.415	2952.46
636.761	2756.38
637.106	2604.97
637.451	2441.15
637.796	2282.29
638.141	2222.72
638.486	2051.46
638.831	1949.69
639.176	1788.36
639.521	1723.82
639.866	1614.61
640.211	1530.22
640.555	1483.06
640.9	1403.63
641.245	1242.29
641.589	1291.94
641.934	1140.53
642.278	1210.03
642.623	1105.78
642.967	1095.85
643.312	1046.21
643.656	939.48
644	1013.94
644.344	912.17
644.689	927.07
645.033	872.46
645.377	755.8
645.721	872.46
646.065	795.51
646.409	733.46
646.753	691.27
647.096	748.35
647.44	621.77
647.784	668.93
648.128	651.55
648.471	601.91
648.815	549.79
649.158	587.02
649.502	534.89
649.845	582.05
650.189	587.02
650.532	624.25
650.875	554.75
651.218	482.77
651.562	497.66
651.905	505.11
652.248	522.48
652.591	433.13
652.934	532.41
653.277	485.25
653.62	462.91
653.963	393.41
654.305	507.59
654.648	467.88
654.991	477.81
655.334	383.49
655.676	472.84
656.019	381
656.361	410.79
656.704	435.61
657.046	497.66
657.389	482.77
657.731	390.93
658.073	420.72
658.415	457.95
658.757	405.82
659.1	363.63
659.442	440.57
659.784	450.5
660.126	336.33
660.468	398.38
660.809	408.31
661.151	381
661.493	341.29
661.835	343.77
662.177	356.18
662.518	395.9
662.86	376.04
663.201	415.75
663.543	467.88
663.884	353.7
664.226	358.66
664.567	448.02
664.908	333.84
665.249	445.54
665.591	388.45
665.932	425.68
666.273	356.18
666.614	383.49
666.955	398.38
667.296	435.61
667.637	438.09
667.978	318.95
668.318	408.31
668.659	385.97
669	428.16
669.341	455.47
669.681	336.33
670.022	425.68
670.362	338.81
670.703	390.93
671.043	423.2
671.383	457.95
671.724	343.77
672.064	371.07
672.404	410.79
672.744	373.56
673.085	371.07
673.425	368.59
673.765	341.29
674.105	376.04
674.444	413.27
674.784	361.15
675.124	306.54
675.464	381
675.804	373.56
676.143	343.77
676.483	351.22
676.823	433.13
677.162	400.86
677.501	383.49
677.841	452.98
678.18	376.04
678.52	378.52
678.859	410.79
679.198	393.41
679.537	363.63
679.876	408.31
680.215	331.36
680.555	400.86
680.894	338.81
681.232	363.63
681.571	336.33
681.91	336.33
682.249	381
682.588	351.22
682.926	413.27
683.265	433.13
683.604	328.88
683.942	361.15
684.281	430.65
684.619	343.77
684.957	413.27
685.296	341.29
685.634	346.25
685.972	435.61
686.31	413.27
686.649	328.88
686.987	376.04
687.325	358.66
687.663	383.49
688.001	403.34
688.338	361.15
688.676	433.13
689.014	435.61
689.352	383.49
689.69	413.27
690.027	435.61
690.365	338.81
690.702	363.63
691.04	388.45
691.377	433.13
691.715	373.56
692.052	366.11
692.389	413.27
692.726	450.5
693.064	279.24
693.401	408.31
693.738	403.34
694.075	452.98
694.412	321.43
694.749	326.4
695.086	385.97
695.423	467.88
695.759	418.23
696.096	271.79
696.433	398.38
696.769	363.63
697.106	361.15
697.443	291.65
697.779	366.11
698.116	410.79
698.452	393.41
698.788	385.97
699.125	490.22
699.461	353.7
699.797	351.22
700.133	353.7
700.469	363.63
700.805	395.9
701.141	413.27
701.477	336.33
701.813	408.31
702.149	398.38
702.485	378.52
702.82	328.88
703.156	333.84
703.492	336.33
703.827	390.93
704.163	405.82
704.498	341.29
704.834	428.16
705.169	388.45
705.505	331.36
705.84	323.91
706.175	420.72
706.51	420.72
706.845	381
707.18	346.25
707.515	413.27
707.85	430.65
708.185	395.9
708.52	450.5
708.855	378.52
709.19	383.49
709.525	405.82
709.859	323.91
710.194	381
710.529	326.4
710.863	363.63
711.198	348.74
711.532	309.02
711.866	415.75
712.201	408.31
712.535	373.56
712.869	361.15
713.203	237.04
713.537	398.38
713.872	311.5
714.206	323.91
714.54	336.33
714.873	313.99
715.207	361.15
715.541	430.65
715.875	423.2
716.209	309.02
716.542	368.59
716.876	415.75
717.21	296.61
717.543	403.34
717.877	450.5
718.21	410.79
718.543	338.81
718.877	363.63
719.21	318.95
719.543	321.43
719.876	306.54
720.209	385.97
720.542	413.27
720.875	296.61
721.208	361.15
721.541	388.45
721.874	373.56
722.207	383.49
722.54	333.84
722.872	385.97
723.205	371.07
723.538	328.88
723.87	338.81
724.203	378.52
724.535	353.7
724.868	405.82
725.2	385.97
725.532	435.61
725.865	336.33
726.197	452.98
726.529	398.38
726.861	299.09
727.193	368.59
727.525	333.84
727.857	363.63
728.189	371.07
728.521	405.82
728.853	385.97
729.184	388.45
729.516	373.56
729.848	376.04
730.179	418.23
730.511	353.7
730.842	356.18
731.174	403.34
731.505	448.02
731.836	415.75
732.168	403.34
732.499	403.34
732.83	378.52
733.161	390.93
733.492	378.52
733.823	413.27
734.154	343.77
734.485	326.4
734.816	366.11
735.147	415.75
735.478	408.31
735.808	388.45
736.139	358.66
736.47	378.52
736.8	368.59
737.131	390.93
737.461	381
737.792	331.36
738.122	430.65
738.452	425.68
738.782	336.33
739.113	440.57
739.443	341.29
739.773	276.75
740.103	353.7
740.433	363.63
740.763	455.47
741.093	306.54
741.423	363.63
741.752	452.98
742.082	388.45
742.412	328.88
742.742	363.63
743.071	304.06
743.401	333.84
743.73	400.86
744.06	381
744.389	408.31
744.718	358.66
745.048	418.23
745.377	351.22
745.706	376.04
746.035	346.25
746.364	400.86
746.693	336.33
747.022	351.22
747.351	413.27
747.68	373.56
748.009	351.22
748.338	388.45
748.666	371.07
748.995	348.74
749.323	423.2
749.652	445.54
749.981	361.15
750.309	366.11
750.637	376.04
750.966	313.99
751.294	383.49
751.622	326.4
751.95	348.74
752.279	448.02
752.607	358.66
752.935	343.77
753.263	323.91
753.591	361.15
753.919	321.43
754.246	336.33
754.574	294.13
754.902	299.09
755.23	390.93
755.557	326.4
755.885	353.7
756.212	398.38
756.54	376.04
756.867	385.97
757.195	457.95
757.522	338.81
757.849	371.07
758.176	433.13
758.503	378.52
758.831	321.43
759.158	296.61
759.485	376.04
759.812	452.98
760.138	376.04
760.465	366.11
760.792	438.09
761.119	452.98
761.446	309.02
761.772	393.41
762.099	289.17
762.425	336.33
762.752	368.59
763.078	346.25
763.405	418.23
763.731	341.29
764.057	388.45
764.383	351.22
764.71	343.77
765.036	366.11
765.362	385.97
765.688	321.43
766.014	351.22
766.34	378.52
766.665	363.63
766.991	393.41
767.317	341.29
767.643	331.36
767.968	286.68
768.294	328.88
768.619	423.2
768.945	435.61
769.27	425.68
769.596	373.56
769.921	376.04
770.246	323.91
770.572	393.41
770.897	338.81
771.222	343.77
771.547	309.02
771.872	373.56
772.197	403.34
772.522	296.61
772.847	313.99
773.171	326.4
773.496	323.91
773.821	333.84
774.146	383.49
774.47	408.31
774.795	284.2
775.119	388.45
