Data from purple spectrum_FLMS025871_15-53-02-821.txt Node
Date: Fri Nov 05 15:53:02 GMT 2021
User: php21ajb
Spectrometer: FLMS02587
Trigger mode: 0
Integration Time (sec): 2.000000E-2
Scans to average: 1
Electric dark correction enabled: true
Nonlinearity correction enabled: false
Boxcar width: 0
XAxis mode: Wavelengths
Number of Pixels in Spectrum: 2048
>>>>>Begin Spectral Data<<<<<
339.619	-58.33
340	-58.33
340.381	-58.33
340.762	-83.15
341.143	-122.86
341.524	-142.72
341.904	-103.01
342.285	-83.15
342.666	-155.13
343.046	-50.88
343.427	-70.74
343.807	-1.24
344.188	-45.92
344.568	-43.44
344.949	-1.24
345.329	43.44
345.71	112.94
346.09	145.2
346.47	83.15
346.85	147.69
347.23	165.06
347.611	105.49
347.991	227.11
348.371	194.85
348.751	187.4
349.131	291.65
349.511	251.93
349.891	251.93
350.27	266.83
350.65	237.04
351.03	279.24
351.41	343.77
351.79	363.63
352.169	311.5
352.549	311.5
352.928	383.49
353.308	286.68
353.687	366.11
354.067	309.02
354.446	343.77
354.826	336.33
355.205	271.79
355.584	286.68
355.964	338.81
356.343	296.61
356.722	395.9
357.101	323.91
357.48	361.15
357.859	418.23
358.238	371.07
358.617	341.29
358.996	341.29
359.375	323.91
359.754	333.84
360.133	284.2
360.512	343.77
360.891	338.81
361.269	366.11
361.648	321.43
362.027	321.43
362.405	351.22
362.784	363.63
363.162	276.75
363.541	343.77
363.919	294.13
364.298	318.95
364.676	361.15
365.054	366.11
365.433	291.65
365.811	351.22
366.189	318.95
366.567	279.24
366.945	266.83
367.323	333.84
367.701	358.66
368.079	358.66
368.457	358.66
368.835	326.4
369.213	331.36
369.591	333.84
369.969	328.88
370.346	323.91
370.724	371.07
371.102	328.88
371.479	381
371.857	289.17
372.235	376.04
372.612	358.66
372.99	338.81
373.367	373.56
373.744	383.49
374.122	346.25
374.499	309.02
374.876	413.27
375.254	331.36
375.631	361.15
376.008	256.9
376.385	338.81
376.762	331.36
377.139	338.81
377.516	323.91
377.893	301.58
378.27	299.09
378.647	318.95
379.024	328.88
379.4	306.54
379.777	358.66
380.154	313.99
380.53	338.81
380.907	333.84
381.284	366.11
381.66	274.27
382.037	321.43
382.413	309.02
382.79	341.29
383.166	346.25
383.542	400.86
383.919	423.2
384.295	413.27
384.671	323.91
385.047	376.04
385.423	348.74
385.799	311.5
386.176	395.9
386.552	326.4
386.928	331.36
387.303	264.34
387.679	398.38
388.055	326.4
388.431	301.58
388.807	309.02
389.183	341.29
389.558	383.49
389.934	311.5
390.309	309.02
390.685	328.88
391.061	398.38
391.436	341.29
391.811	373.56
392.187	438.09
392.562	304.06
392.938	348.74
393.313	383.49
393.688	341.29
394.063	348.74
394.438	376.04
394.814	388.45
395.189	326.4
395.564	284.2
395.939	338.81
396.314	301.58
396.689	289.17
397.063	415.75
397.438	321.43
397.813	309.02
398.188	313.99
398.563	363.63
398.937	321.43
399.312	323.91
399.686	333.84
400.061	301.58
400.435	316.47
400.81	289.17
401.184	390.93
401.559	331.36
401.933	338.81
402.307	376.04
402.682	393.41
403.056	323.91
403.43	368.59
403.804	363.63
404.178	366.11
404.552	271.79
404.926	410.79
405.3	348.74
405.674	316.47
406.048	405.82
406.422	423.2
406.796	309.02
407.169	363.63
407.543	316.47
407.917	395.9
408.291	336.33
408.664	353.7
409.038	341.29
409.411	336.33
409.785	381
410.158	376.04
410.531	400.86
410.905	408.31
411.278	371.07
411.651	408.31
412.025	366.11
412.398	373.56
412.771	393.41
413.144	388.45
413.517	408.31
413.89	450.5
414.263	410.79
414.636	381
415.009	398.38
415.382	353.7
415.755	353.7
416.127	428.16
416.5	363.63
416.873	343.77
417.245	341.29
417.618	356.18
417.991	309.02
418.363	381
418.736	420.72
419.108	423.2
419.48	321.43
419.853	393.41
420.225	388.45
420.597	388.45
420.97	400.86
421.342	368.59
421.714	410.79
422.086	408.31
422.458	403.34
422.83	433.13
423.202	343.77
423.574	358.66
423.946	388.45
424.318	435.61
424.69	455.47
425.061	425.68
425.433	393.41
425.805	452.98
426.177	480.29
426.548	405.82
426.92	470.36
427.291	381
427.663	465.39
428.034	537.38
428.406	539.86
428.777	433.13
429.148	527.45
429.519	435.61
429.891	472.84
430.262	482.77
430.633	500.14
431.004	517.52
431.375	500.14
431.746	579.57
432.117	520
432.488	552.27
432.859	537.38
433.23	666.45
433.601	601.91
433.971	641.62
434.342	688.78
434.713	830.26
435.083	845.16
435.454	842.67
435.825	862.53
436.195	780.62
436.566	753.32
436.936	740.91
437.306	902.24
437.677	847.64
438.047	862.53
438.417	798
438.788	946.92
439.158	927.07
439.528	974.23
439.898	1011.46
440.268	1167.83
440.638	1123.15
441.008	1187.69
441.378	1147.97
441.748	1289.45
442.118	1224.92
442.487	1376.33
442.857	1319.24
443.227	1532.7
443.597	1413.56
443.966	1564.97
444.336	1592.27
444.705	1547.59
445.075	1684.11
445.444	1763.54
445.814	1731.27
446.183	1922.39
446.552	1770.98
446.922	1934.8
447.291	2068.83
447.66	2190.46
448.029	2197.9
448.398	2314.56
448.768	2461.01
449.137	2537.95
449.506	2580.15
449.875	2751.41
450.243	2671.99
450.612	2858.14
450.981	2927.64
451.35	3076.57
451.719	3208.12
452.087	3242.87
452.456	3294.99
452.825	3597.81
453.193	3652.42
453.562	3774.04
453.93	3875.81
454.299	4039.62
454.667	4052.04
455.035	4263.01
455.404	4121.53
455.772	4260.53
456.14	4431.8
456.508	4612.99
456.877	4523.64
457.245	4697.38
457.613	4548.46
457.981	4707.31
458.349	4809.08
458.717	4704.83
459.085	4965.45
459.452	4667.6
459.82	4627.88
460.188	4722.2
460.556	4714.76
460.923	4781.77
461.291	4543.49
461.659	4558.38
462.026	4555.9
462.394	4327.55
462.761	4317.62
463.128	4138.91
463.496	4002.39
463.863	3890.7
464.23	3850.98
464.598	3736.81
464.965	3707.02
465.332	3550.65
465.699	3339.67
466.066	3438.96
466.433	3232.94
466.8	3118.76
467.167	3007.07
467.534	2994.66
467.901	2910.27
468.268	2813.47
468.635	2840.77
469.001	2714.18
469.368	2629.79
469.735	2582.63
470.101	2339.38
470.468	2389.03
470.834	2423.77
471.201	2351.79
471.567	2284.78
471.934	2183.01
472.3	2292.22
472.666	2190.46
473.032	2098.62
473.399	2071.32
473.765	2123.44
474.131	2024.16
474.497	1984.44
474.863	2031.6
475.229	1850.41
475.595	1954.66
475.961	1785.87
476.327	1850.41
476.693	1770.98
477.058	1753.61
477.424	1631.98
477.79	1656.8
478.156	1758.57
478.521	1584.82
478.887	1527.74
479.252	1465.68
479.618	1512.84
479.983	1440.86
480.348	1339.1
480.714	1393.7
481.079	1393.7
481.444	1356.47
481.81	1336.61
482.175	1284.49
482.54	1247.26
482.905	1217.47
483.27	1274.56
483.635	1170.31
484	1157.9
484.365	1100.81
484.73	1085.92
485.095	1098.33
485.459	1061.1
485.824	1026.35
486.189	1056.14
486.553	994.08
486.918	941.96
487.283	956.85
487.647	974.23
488.012	924.58
488.376	889.83
488.74	872.46
489.105	979.19
489.469	929.55
489.833	914.66
490.198	852.6
490.562	822.82
490.926	842.67
491.29	822.82
491.654	810.41
492.018	753.32
492.382	758.28
492.746	748.35
493.11	733.46
493.474	663.96
493.837	802.96
494.201	646.59
494.565	686.3
494.928	599.43
495.292	703.68
495.656	673.89
496.019	636.66
496.383	626.73
496.746	686.3
497.109	659
497.473	654.03
497.836	656.52
498.199	601.91
498.563	661.48
498.926	626.73
499.289	574.61
499.652	611.84
500.015	524.97
500.378	500.14
500.741	537.38
501.104	524.97
501.467	549.79
501.829	510.07
502.192	547.3
502.555	537.38
502.918	539.86
503.28	517.52
503.643	428.16
504.005	542.34
504.368	448.02
504.73	547.3
505.093	472.84
505.455	477.81
505.817	544.82
506.18	467.88
506.542	482.77
506.904	515.04
507.266	452.98
507.628	524.97
507.991	517.52
508.353	440.57
508.715	490.22
509.076	475.32
509.438	445.54
509.8	472.84
510.162	507.59
510.524	502.63
510.885	435.61
511.247	465.39
511.609	405.82
511.97	428.16
512.332	435.61
512.693	475.32
513.055	385.97
513.416	366.11
513.778	398.38
514.139	460.43
514.5	430.65
514.861	475.32
515.223	460.43
515.584	413.27
515.945	418.23
516.306	477.81
516.667	440.57
517.028	408.31
517.389	460.43
517.75	428.16
518.11	428.16
518.471	413.27
518.832	413.27
519.193	408.31
519.553	333.84
519.914	438.09
520.274	415.75
520.635	405.82
520.995	368.59
521.356	455.47
521.716	428.16
522.076	361.15
522.437	371.07
522.797	438.09
523.157	415.75
523.517	428.16
523.877	438.09
524.238	452.98
524.598	408.31
524.958	415.75
525.317	423.2
525.677	413.27
526.037	435.61
526.397	477.81
526.757	361.15
527.116	435.61
527.476	435.61
527.836	390.93
528.195	428.16
528.555	433.13
528.914	286.68
529.274	395.9
529.633	438.09
529.993	393.41
530.352	400.86
530.711	385.97
531.07	361.15
531.429	423.2
531.789	395.9
532.148	462.91
532.507	385.97
532.866	428.16
533.225	415.75
533.584	420.72
533.942	376.04
534.301	480.29
534.66	398.38
535.019	415.75
535.377	467.88
535.736	346.25
536.095	368.59
536.453	433.13
536.812	361.15
537.17	497.66
537.528	341.29
537.887	363.63
538.245	400.86
538.603	388.45
538.962	448.02
539.32	448.02
539.678	435.61
540.036	448.02
540.394	443.06
540.752	557.23
541.11	572.13
541.468	579.57
541.826	448.02
542.184	549.79
542.541	502.63
542.899	475.32
543.257	482.77
543.614	567.16
543.972	626.73
544.33	440.57
544.687	599.43
545.045	604.39
545.402	626.73
545.759	726.02
546.117	572.13
546.474	562.2
546.831	500.14
547.188	423.2
547.546	507.59
547.903	475.32
548.26	430.65
548.617	418.23
548.974	500.14
549.331	448.02
549.687	395.9
550.044	418.23
550.401	408.31
550.758	428.16
551.114	477.81
551.471	430.65
551.828	408.31
552.184	378.52
552.541	373.56
552.897	467.88
553.254	433.13
553.61	413.27
553.966	433.13
554.323	420.72
554.679	492.7
555.035	435.61
555.391	420.72
555.747	371.07
556.103	398.38
556.459	376.04
556.815	351.22
557.171	403.34
557.527	348.74
557.883	393.41
558.239	455.47
558.594	448.02
558.95	326.4
559.306	462.91
559.661	385.97
560.017	435.61
560.372	348.74
560.728	306.54
561.083	361.15
561.438	415.75
561.794	381
562.149	388.45
562.504	455.47
562.859	403.34
563.215	376.04
563.57	448.02
563.925	338.81
564.28	371.07
564.635	485.25
564.99	381
565.344	398.38
565.699	398.38
566.054	423.2
566.409	485.25
566.763	462.91
567.118	423.2
567.473	428.16
567.827	505.11
568.182	361.15
568.536	475.32
568.891	410.79
569.245	398.38
569.599	430.65
569.953	433.13
570.308	376.04
570.662	418.23
571.016	457.95
571.37	378.52
571.724	450.5
572.078	361.15
572.432	438.09
572.786	433.13
573.14	353.7
573.494	388.45
573.847	378.52
574.201	428.16
574.555	341.29
574.908	445.54
575.262	408.31
575.615	383.49
575.969	487.73
576.322	448.02
576.676	470.36
577.029	443.06
577.382	420.72
577.736	477.81
578.089	497.66
578.442	512.55
578.795	500.14
579.148	448.02
579.501	452.98
579.854	413.27
580.207	405.82
580.56	378.52
580.913	408.31
581.265	455.47
581.618	450.5
581.971	520
582.324	413.27
582.676	497.66
583.029	524.97
583.381	517.52
583.734	497.66
584.086	475.32
584.438	477.81
584.791	480.29
585.143	492.7
585.495	512.55
585.847	529.93
586.2	457.95
586.552	502.63
586.904	435.61
587.256	475.32
587.608	477.81
587.959	477.81
588.311	480.29
588.663	490.22
589.015	554.75
589.367	472.84
589.718	472.84
590.07	522.48
590.421	472.84
590.773	450.5
591.124	470.36
591.476	495.18
591.827	485.25
592.179	574.61
592.53	562.2
592.881	482.77
593.232	529.93
593.584	544.82
593.935	520
594.286	534.89
594.637	450.5
594.988	467.88
595.339	529.93
595.689	547.3
596.04	549.79
596.391	572.13
596.742	616.8
597.092	537.38
597.443	537.38
597.794	641.62
598.144	564.68
598.495	577.09
598.845	606.87
599.196	740.91
599.546	649.07
599.896	619.29
600.247	671.41
600.597	631.7
600.947	659
601.297	681.34
601.647	706.16
601.997	768.21
602.347	659
602.697	820.34
603.047	807.92
603.397	740.91
603.747	770.69
604.096	855.08
604.446	793.03
604.796	780.62
605.145	847.64
605.495	827.78
605.844	825.3
606.194	941.96
606.543	827.78
606.893	949.4
607.242	919.62
607.591	929.55
607.94	1031.31
608.29	1123.15
608.639	1061.1
608.988	971.74
609.337	1095.85
609.686	1259.67
610.035	1222.44
610.384	1294.42
610.733	1349.02
611.081	1500.43
611.43	1349.02
611.779	1425.97
612.127	1386.26
612.476	1398.67
612.825	1386.26
613.173	1512.84
613.522	1393.7
613.87	1383.77
614.218	1567.45
614.567	1413.56
614.915	1495.47
615.263	1609.64
615.611	1594.75
615.96	1612.13
616.308	1723.82
616.656	1766.02
617.004	1882.68
617.352	1895.09
617.7	2016.71
618.047	2053.94
618.395	2192.94
618.743	2153.23
619.091	2267.4
619.438	2309.6
619.786	2535.47
620.134	2490.79
620.481	2510.65
620.829	2552.84
621.176	2783.68
621.523	2940.05
621.871	2942.53
622.218	3046.78
622.565	3069.12
622.912	3297.48
623.259	3366.97
623.607	3515.9
623.954	3637.52
624.301	3659.86
624.648	3853.47
624.994	3868.36
625.341	4012.32
625.688	4047.07
626.035	4128.98
626.382	4191.03
626.728	4372.23
627.075	4473.99
627.421	4650.22
627.768	4600.58
628.114	4692.42
628.461	4910.84
628.807	4729.65
629.154	4975.38
629.5	4910.84
629.846	4828.93
630.192	4635.33
630.538	4751.99
630.884	4697.38
631.231	4466.55
631.577	4275.42
631.922	4104.16
632.268	3860.91
632.614	3774.04
632.96	3508.45
633.306	3429.03
633.651	3252.8
633.997	3007.07
634.343	2870.55
634.688	2706.73
635.034	2498.24
635.379	2391.51
635.725	2232.65
636.07	2125.92
636.415	1994.37
636.761	1870.27
637.106	1865.3
637.451	1656.8
637.796	1510.36
638.141	1488.02
638.486	1326.68
638.831	1378.81
639.176	1309.31
639.521	1217.47
639.866	1100.81
640.211	1085.92
640.555	1071.03
640.9	1016.42
641.245	1056.14
641.589	927.07
641.934	850.12
642.278	882.39
642.623	830.26
642.967	874.94
643.312	869.98
643.656	778.14
644	693.75
644.344	738.43
644.689	735.94
645.033	634.18
645.377	641.62
645.721	634.18
646.065	641.62
646.409	567.16
646.753	564.68
647.096	624.25
647.44	524.97
647.784	569.64
648.128	552.27
648.471	579.57
648.815	485.25
649.158	510.07
649.502	497.66
649.845	490.22
650.189	487.73
650.532	430.65
650.875	413.27
651.218	507.59
651.562	418.23
651.905	497.66
652.248	452.98
652.591	445.54
652.934	457.95
653.277	487.73
653.62	383.49
653.963	480.29
654.305	505.11
654.648	462.91
654.991	428.16
655.334	420.72
655.676	443.06
656.019	490.22
656.361	430.65
656.704	418.23
657.046	443.06
657.389	400.86
657.731	393.41
658.073	433.13
658.415	338.81
658.757	415.75
659.1	373.56
659.442	430.65
659.784	371.07
660.126	338.81
660.468	356.18
660.809	430.65
661.151	443.06
661.493	333.84
661.835	398.38
662.177	385.97
662.518	462.91
662.86	361.15
663.201	346.25
663.543	403.34
663.884	445.54
664.226	430.65
664.567	378.52
664.908	346.25
665.249	440.57
665.591	385.97
665.932	393.41
666.273	373.56
666.614	395.9
666.955	304.06
667.296	440.57
667.637	430.65
667.978	351.22
668.318	356.18
668.659	371.07
669	363.63
669.341	452.98
669.681	353.7
670.022	366.11
670.362	373.56
670.703	376.04
671.043	445.54
671.383	361.15
671.724	420.72
672.064	361.15
672.404	326.4
672.744	385.97
673.085	418.23
673.425	343.77
673.765	378.52
674.105	455.47
674.444	366.11
674.784	348.74
675.124	371.07
675.464	368.59
675.804	450.5
676.143	326.4
676.483	368.59
676.823	423.2
677.162	338.81
677.501	363.63
677.841	405.82
678.18	353.7
678.52	435.61
678.859	388.45
679.198	381
679.537	321.43
679.876	381
680.215	381
680.555	383.49
680.894	373.56
681.232	388.45
681.571	348.74
681.91	393.41
682.249	306.54
682.588	381
682.926	348.74
683.265	323.91
683.604	400.86
683.942	385.97
684.281	358.66
684.619	378.52
684.957	361.15
685.296	383.49
685.634	371.07
685.972	393.41
686.31	368.59
686.649	368.59
686.987	410.79
687.325	383.49
687.663	395.9
688.001	408.31
688.338	408.31
688.676	333.84
689.014	390.93
689.352	415.75
689.69	318.95
690.027	363.63
690.365	351.22
690.702	363.63
691.04	356.18
691.377	269.31
691.715	381
692.052	443.06
692.389	410.79
692.726	400.86
693.064	343.77
693.401	398.38
693.738	281.72
694.075	383.49
694.412	378.52
694.749	430.65
695.086	348.74
695.423	373.56
695.759	381
696.096	413.27
696.433	482.77
696.769	338.81
697.106	331.36
697.443	408.31
697.779	430.65
698.116	430.65
698.452	393.41
698.788	452.98
699.125	368.59
699.461	433.13
699.797	343.77
700.133	385.97
700.469	376.04
700.805	353.7
701.141	415.75
701.477	385.97
701.813	356.18
702.149	415.75
702.485	400.86
702.82	301.58
703.156	405.82
703.492	371.07
703.827	326.4
704.163	393.41
704.498	398.38
704.834	291.65
705.169	333.84
705.505	405.82
705.84	420.72
706.175	318.95
706.51	313.99
706.845	425.68
707.18	425.68
707.515	398.38
707.85	383.49
708.185	326.4
708.52	376.04
708.855	326.4
709.19	383.49
709.525	395.9
709.859	430.65
710.194	301.58
710.529	385.97
710.863	385.97
711.198	400.86
711.532	363.63
711.866	393.41
712.201	321.43
712.535	435.61
712.869	368.59
713.203	445.54
713.537	470.36
713.872	393.41
714.206	371.07
714.54	318.95
714.873	331.36
715.207	333.84
715.541	296.61
715.875	378.52
716.209	383.49
716.542	343.77
716.876	376.04
717.21	321.43
717.543	408.31
717.877	415.75
718.21	361.15
718.543	366.11
718.877	304.06
719.21	353.7
719.543	385.97
719.876	403.34
720.209	410.79
720.542	400.86
720.875	361.15
721.208	390.93
721.541	390.93
721.874	433.13
722.207	368.59
722.54	408.31
722.872	408.31
723.205	333.84
723.538	415.75
723.87	343.77
724.203	299.09
724.535	358.66
724.868	361.15
725.2	326.4
725.532	455.47
725.865	368.59
726.197	373.56
726.529	348.74
726.861	286.68
727.193	435.61
727.525	328.88
727.857	390.93
728.189	368.59
728.521	405.82
728.853	395.9
729.184	338.81
729.516	403.34
729.848	313.99
730.179	430.65
730.511	361.15
730.842	318.95
731.174	351.22
731.505	361.15
731.836	338.81
732.168	398.38
732.499	358.66
732.83	388.45
733.161	423.2
733.492	373.56
733.823	418.23
734.154	418.23
734.485	333.84
734.816	376.04
735.147	361.15
735.478	338.81
735.808	368.59
736.139	291.65
736.47	395.9
736.8	413.27
737.131	373.56
737.461	482.77
737.792	338.81
738.122	351.22
738.452	425.68
738.782	425.68
739.113	326.4
739.443	393.41
739.773	383.49
740.103	376.04
740.433	381
740.763	361.15
741.093	376.04
741.423	321.43
741.752	366.11
742.082	378.52
742.412	353.7
742.742	351.22
743.071	338.81
743.401	326.4
743.73	378.52
744.06	410.79
744.389	358.66
744.718	373.56
745.048	311.5
745.377	328.88
745.706	313.99
746.035	358.66
746.364	381
746.693	443.06
747.022	433.13
747.351	385.97
747.68	358.66
748.009	348.74
748.338	465.39
748.666	336.33
748.995	400.86
749.323	318.95
749.652	368.59
749.981	321.43
750.309	336.33
750.637	353.7
750.966	383.49
751.294	333.84
751.622	388.45
751.95	410.79
752.279	356.18
752.607	465.39
752.935	395.9
753.263	443.06
753.591	393.41
753.919	316.47
754.246	301.58
754.574	351.22
754.902	381
755.23	341.29
755.557	356.18
755.885	438.09
756.212	323.91
756.54	348.74
756.867	368.59
757.195	336.33
757.522	318.95
757.849	410.79
758.176	388.45
758.503	373.56
758.831	420.72
759.158	368.59
759.485	313.99
759.812	388.45
760.138	390.93
760.465	343.77
760.792	403.34
761.119	316.47
761.446	438.09
761.772	388.45
762.099	361.15
762.425	336.33
762.752	460.43
763.078	294.13
763.405	438.09
763.731	338.81
764.057	346.25
764.383	472.84
764.71	415.75
765.036	343.77
765.362	378.52
765.688	400.86
766.014	366.11
766.34	376.04
766.665	395.9
766.991	363.63
767.317	383.49
767.643	385.97
767.968	410.79
768.294	361.15
768.619	400.86
768.945	331.36
769.27	361.15
769.596	309.02
769.921	443.06
770.246	368.59
770.572	398.38
770.897	403.34
771.222	403.34
771.547	430.65
771.872	279.24
772.197	304.06
772.522	381
772.847	400.86
773.171	393.41
773.496	348.74
773.821	291.65
774.146	373.56
774.47	393.41
774.795	366.11
775.119	358.66
