Data from red spectrum_FLMS025871_15-54-49-646.txt Node
Date: Fri Nov 05 15:54:49 GMT 2021
User: php21ajb
Spectrometer: FLMS02587
Trigger mode: 0
Integration Time (sec): 2.000000E-2
Scans to average: 1
Electric dark correction enabled: true
Nonlinearity correction enabled: false
Boxcar width: 0
XAxis mode: Wavelengths
Number of Pixels in Spectrum: 2048
>>>>>Begin Spectral Data<<<<<
339.619	24.05
340	24.05
340.381	24.05
340.762	-47.94
341.143	-85.17
341.524	-129.85
341.904	-75.24
342.285	-52.9
342.666	-112.47
343.046	-70.27
343.427	-127.36
343.807	-55.38
344.188	-50.42
344.568	48.87
344.949	81.13
345.329	51.35
345.71	48.87
346.09	110.92
346.47	81.13
346.85	135.74
347.23	115.88
347.611	200.27
347.991	190.35
348.371	235.02
348.751	272.26
349.131	341.75
349.511	239.99
349.891	279.7
350.27	331.83
350.65	326.86
351.03	311.97
351.41	354.17
351.79	364.09
352.169	316.93
352.549	329.34
352.928	346.72
353.308	302.04
353.687	316.93
354.067	359.13
354.446	349.2
354.826	359.13
355.205	321.9
355.584	344.24
355.964	388.91
356.343	354.17
356.722	339.27
357.101	341.75
357.48	341.75
357.859	383.95
358.238	401.33
358.617	359.13
358.996	366.58
359.375	401.33
359.754	376.5
360.133	341.75
360.512	383.95
360.891	314.45
361.269	371.54
361.648	393.88
362.027	356.65
362.405	356.65
362.784	361.61
363.162	316.93
363.541	302.04
363.919	314.45
364.298	299.56
364.676	366.58
365.054	383.95
365.433	331.83
365.811	376.5
366.189	334.31
366.567	309.49
366.945	311.97
367.323	361.61
367.701	349.2
368.079	326.86
368.457	344.24
368.835	406.29
369.213	302.04
369.591	369.06
369.969	349.2
370.346	341.75
370.724	294.59
371.102	376.5
371.479	359.13
371.857	304.52
372.235	346.72
372.612	436.07
372.99	344.24
373.367	359.13
373.744	371.54
374.122	388.91
374.499	309.49
374.876	371.54
375.254	324.38
375.631	386.43
376.008	349.2
376.385	294.59
376.762	297.08
377.139	336.79
377.516	304.52
377.893	393.88
378.27	307.01
378.647	309.49
379.024	334.31
379.4	356.65
379.777	331.83
380.154	359.13
380.53	329.34
380.907	336.79
381.284	339.27
381.66	406.29
382.037	324.38
382.413	354.17
382.79	349.2
383.166	299.56
383.542	364.09
383.919	396.36
384.295	421.18
384.671	329.34
385.047	388.91
385.423	326.86
385.799	269.77
386.176	381.47
386.552	438.56
386.928	393.88
387.303	269.77
387.679	339.27
388.055	361.61
388.431	344.24
388.807	346.72
389.183	364.09
389.558	339.27
389.934	297.08
390.309	331.83
390.685	304.52
391.061	326.86
391.436	304.52
391.811	329.34
392.187	336.79
392.562	351.68
392.938	334.31
393.313	426.15
393.688	294.59
394.063	289.63
394.438	361.61
394.814	336.79
395.189	334.31
395.564	331.83
395.939	458.41
396.314	346.72
396.689	393.88
397.063	326.86
397.438	366.58
397.813	314.45
398.188	269.77
398.563	376.5
398.937	364.09
399.312	369.06
399.686	326.86
400.061	403.81
400.435	339.27
400.81	376.5
401.184	364.09
401.559	388.91
401.933	356.65
402.307	393.88
402.682	334.31
403.056	341.75
403.43	364.09
403.804	359.13
404.178	356.65
404.552	361.61
404.926	376.5
405.3	346.72
405.674	369.06
406.048	339.27
406.422	356.65
406.796	269.77
407.169	230.06
407.543	369.06
407.917	438.56
408.291	349.2
408.664	388.91
409.038	299.56
409.411	289.63
409.785	309.49
410.158	359.13
410.531	339.27
410.905	324.38
411.278	354.17
411.651	378.99
412.025	354.17
412.398	334.31
412.771	455.93
413.144	366.58
413.517	349.2
413.89	441.04
414.263	336.79
414.636	349.2
415.009	388.91
415.382	418.7
415.755	366.58
416.127	359.13
416.5	359.13
416.873	438.56
417.245	369.06
417.618	369.06
417.991	448.49
418.363	428.63
418.736	339.27
419.108	383.95
419.48	383.95
419.853	398.84
420.225	309.49
420.597	418.7
420.97	336.79
421.342	391.4
421.714	364.09
422.086	393.88
422.458	408.77
422.83	388.91
423.202	361.61
423.574	326.86
423.946	366.58
424.318	428.63
424.69	388.91
425.061	326.86
425.433	359.13
425.805	349.2
426.177	378.99
426.548	428.63
426.92	349.2
427.291	364.09
427.663	314.45
428.034	388.91
428.406	383.95
428.777	374.02
429.148	396.36
429.519	431.11
429.891	423.66
430.262	371.54
430.633	411.25
431.004	383.95
431.375	416.22
431.746	406.29
432.117	386.43
432.488	381.47
432.859	336.79
433.23	329.34
433.601	329.34
433.971	369.06
434.342	366.58
434.713	398.84
435.083	478.27
435.454	572.59
435.825	443.52
436.195	388.91
436.566	428.63
436.936	378.99
437.306	455.93
437.677	376.5
438.047	289.63
438.417	423.66
438.788	369.06
439.158	378.99
439.528	413.74
439.898	433.59
440.268	391.4
440.638	364.09
441.008	369.06
441.378	406.29
441.748	282.18
442.118	416.22
442.487	346.72
442.857	309.49
443.227	458.41
443.597	351.68
443.966	364.09
444.336	388.91
444.705	334.31
445.075	423.66
445.444	416.22
445.814	376.5
446.183	378.99
446.552	361.61
446.922	386.43
447.291	349.2
447.66	359.13
448.029	413.74
448.398	470.82
448.768	359.13
449.137	383.95
449.506	403.81
449.875	396.36
450.243	356.65
450.612	408.77
450.981	421.18
451.35	426.15
451.719	354.17
452.087	324.38
452.456	349.2
452.825	326.86
453.193	329.34
453.562	416.22
453.93	401.33
454.299	334.31
454.667	383.95
455.035	349.2
455.404	339.27
455.772	391.4
456.14	391.4
456.508	371.54
456.877	359.13
457.245	378.99
457.613	366.58
457.981	366.58
458.349	431.11
458.717	364.09
459.085	423.66
459.452	398.84
459.82	443.52
460.188	366.58
460.556	346.72
460.923	411.25
461.291	344.24
461.659	386.43
462.026	374.02
462.394	403.81
462.761	351.68
463.128	421.18
463.496	403.81
463.863	346.72
464.23	311.97
464.598	351.68
464.965	331.83
465.332	361.61
465.699	423.66
466.066	406.29
466.433	401.33
466.8	441.04
467.167	421.18
467.534	351.68
467.901	398.84
468.268	321.9
468.635	396.36
469.001	376.5
469.368	391.4
469.735	369.06
470.101	426.15
470.468	388.91
470.834	433.59
471.201	406.29
471.567	359.13
471.934	473.31
472.3	349.2
472.666	366.58
473.032	403.81
473.399	369.06
473.765	326.86
474.131	374.02
474.497	408.77
474.863	416.22
475.229	383.95
475.595	388.91
475.961	361.61
476.327	378.99
476.693	374.02
477.058	386.43
477.424	369.06
477.79	406.29
478.156	388.91
478.521	321.9
478.887	364.09
479.252	329.34
479.618	359.13
479.983	448.49
480.348	396.36
480.714	376.5
481.079	369.06
481.444	388.91
481.81	398.84
482.175	378.99
482.54	359.13
482.905	408.77
483.27	438.56
483.635	398.84
484	453.45
484.365	304.52
484.73	374.02
485.095	383.95
485.459	378.99
485.824	381.47
486.189	356.65
486.553	341.75
486.918	381.47
487.283	418.7
487.647	460.9
488.012	413.74
488.376	485.72
488.74	406.29
489.105	319.42
489.469	376.5
489.833	416.22
490.198	369.06
490.562	418.7
490.926	388.91
491.29	428.63
491.654	448.49
492.018	403.81
492.382	354.17
492.746	423.66
493.11	388.91
493.474	393.88
493.837	505.57
494.201	441.04
494.565	401.33
494.928	388.91
495.292	406.29
495.656	369.06
496.019	396.36
496.383	366.58
496.746	314.45
497.109	364.09
497.473	388.91
497.836	478.27
498.199	309.49
498.563	356.65
498.926	376.5
499.289	349.2
499.652	408.77
500.015	354.17
500.378	393.88
500.741	403.81
501.104	403.81
501.467	388.91
501.829	361.61
502.192	341.75
502.555	356.65
502.918	396.36
503.28	403.81
503.643	441.04
504.005	376.5
504.368	408.77
504.73	413.74
505.093	331.83
505.455	336.79
505.817	413.74
506.18	393.88
506.542	446
506.904	416.22
507.266	369.06
507.628	406.29
507.991	441.04
508.353	393.88
508.715	443.52
509.076	448.49
509.438	354.17
509.8	465.86
510.162	386.43
510.524	356.65
510.885	314.45
511.247	426.15
511.609	383.95
511.97	369.06
512.332	403.81
512.693	376.5
513.055	413.74
513.416	465.86
513.778	418.7
514.139	406.29
514.5	398.84
514.861	431.11
515.223	453.45
515.584	299.56
515.945	383.95
516.306	393.88
516.667	441.04
517.028	401.33
517.389	468.34
517.75	431.11
518.11	356.65
518.471	431.11
518.832	351.68
519.193	408.77
519.553	431.11
519.914	393.88
520.274	331.83
520.635	411.25
520.995	403.81
521.356	311.97
521.716	446
522.076	381.47
522.437	446
522.797	381.47
523.157	431.11
523.517	398.84
523.877	386.43
524.238	369.06
524.598	421.18
524.958	376.5
525.317	423.66
525.677	418.7
526.037	453.45
526.397	401.33
526.757	428.63
527.116	455.93
527.476	359.13
527.836	465.86
528.195	441.04
528.555	339.27
528.914	418.7
529.274	438.56
529.633	473.31
529.993	386.43
530.352	403.81
530.711	433.59
531.07	378.99
531.429	356.65
531.789	423.66
532.148	431.11
532.507	391.4
532.866	408.77
533.225	413.74
533.584	421.18
533.942	421.18
534.301	386.43
534.66	408.77
535.019	321.9
535.377	401.33
535.736	396.36
536.095	393.88
536.453	428.63
536.812	505.57
537.17	470.82
537.528	393.88
537.887	396.36
538.245	423.66
538.603	408.77
538.962	436.07
539.32	401.33
539.678	408.77
540.036	411.25
540.394	443.52
540.752	493.16
541.11	585
541.468	508.06
541.826	560.18
542.184	530.39
542.541	510.54
542.899	498.13
543.257	522.95
543.614	495.65
543.972	495.65
544.33	520.47
544.687	468.34
545.045	674.36
545.402	681.8
545.759	696.7
546.117	575.07
546.474	552.73
546.831	527.91
547.188	505.57
547.546	468.34
547.903	453.45
548.26	436.07
548.617	463.38
548.974	493.16
549.331	383.95
549.687	426.15
550.044	483.23
550.401	460.9
550.758	371.54
551.114	436.07
551.471	423.66
551.828	446
552.184	386.43
552.541	386.43
552.897	418.7
553.254	406.29
553.61	448.49
553.966	398.84
554.323	498.13
554.679	369.06
555.035	398.84
555.391	383.95
555.747	423.66
556.103	458.41
556.459	383.95
556.815	388.91
557.171	311.97
557.527	460.9
557.883	398.84
558.239	406.29
558.594	364.09
558.95	431.11
559.306	455.93
559.661	344.24
560.017	398.84
560.372	421.18
560.728	446
561.083	438.56
561.438	386.43
561.794	319.42
562.149	426.15
562.504	458.41
562.859	349.2
563.215	423.66
563.57	374.02
563.925	428.63
564.28	488.2
564.635	513.02
564.99	411.25
565.344	426.15
565.699	458.41
566.054	383.95
566.409	416.22
566.763	411.25
567.118	408.77
567.473	428.63
567.827	421.18
568.182	403.81
568.536	431.11
568.891	458.41
569.245	403.81
569.599	426.15
569.953	416.22
570.308	475.79
570.662	339.27
571.016	391.4
571.37	413.74
571.724	448.49
572.078	413.74
572.432	458.41
572.786	450.97
573.14	386.43
573.494	413.74
573.847	495.65
574.201	498.13
574.555	480.75
574.908	443.52
575.262	446
575.615	478.27
575.969	503.09
576.322	520.47
576.676	391.4
577.029	478.27
577.382	532.88
577.736	455.93
578.089	530.39
578.442	495.65
578.795	473.31
579.148	540.32
579.501	428.63
579.854	505.57
580.207	453.45
580.56	490.68
580.913	470.82
581.265	513.02
581.618	503.09
581.971	555.22
582.324	515.5
582.676	510.54
583.029	604.86
583.381	599.89
583.734	517.98
584.086	493.16
584.438	510.54
584.791	542.81
585.143	585
585.495	562.66
585.847	580.04
586.2	609.82
586.552	550.25
586.904	706.62
587.256	505.57
587.608	599.89
587.959	604.86
588.311	599.89
588.663	642.09
589.015	547.77
589.367	624.71
589.718	652.02
590.07	669.39
590.421	614.79
590.773	647.05
591.124	582.52
591.476	679.32
591.827	649.54
592.179	666.91
592.53	681.8
592.881	768.68
593.232	714.07
593.584	753.78
593.935	671.87
594.286	674.36
594.637	768.68
594.988	761.23
595.339	815.84
595.689	823.28
596.04	721.52
596.391	922.57
596.742	803.43
597.092	820.8
597.443	835.69
597.794	867.96
598.144	944.91
598.495	930.01
598.845	912.64
599.196	999.51
599.546	997.03
599.896	949.87
600.247	1031.78
600.597	1083.9
600.947	1101.28
601.297	1106.24
601.647	1131.06
601.997	1073.98
602.347	1108.72
602.697	1212.97
603.047	1180.71
603.397	1317.22
603.747	1272.54
604.096	1270.06
604.446	1351.97
604.796	1401.61
605.145	1468.63
605.495	1495.93
605.844	1585.29
606.194	1605.15
606.543	1634.93
606.893	1625
607.242	1706.91
607.591	1662.23
607.94	1781.38
608.29	1860.8
608.639	1910.44
608.988	1903
609.337	1965.05
609.686	2153.69
610.035	2272.83
610.384	2322.47
610.733	2391.97
611.081	2483.81
611.43	2573.17
611.779	2493.74
612.127	2617.84
612.476	2732.02
612.825	2741.95
613.173	2816.41
613.522	2717.13
613.87	2962.86
614.218	2980.23
614.567	3099.37
614.915	3240.85
615.263	3275.6
615.611	3305.39
615.96	3561.04
616.308	3714.93
616.656	3692.6
617.004	3829.11
617.352	4037.61
617.7	4134.41
618.047	4320.57
618.395	4499.28
618.743	4635.8
619.091	4784.72
619.438	5032.93
619.786	5109.88
620.134	5313.41
620.481	5323.34
620.829	5780.05
621.176	5953.79
621.523	6120.09
621.871	6241.72
622.218	6420.43
622.565	6892.03
622.912	6889.55
623.259	7167.54
623.607	7475.32
623.954	7902.24
624.301	8143.01
624.648	8381.29
624.994	8465.68
625.341	8763.53
625.688	8872.75
626.035	9200.39
626.382	9587.59
626.728	9689.36
627.075	9927.64
627.421	10180.82
627.768	10324.78
628.114	10563.06
628.461	10769.07
628.807	10818.72
629.154	11133.94
629.5	11116.57
629.846	10952.75
630.192	10885.73
630.538	10935.38
630.884	10577.95
631.231	10334.71
631.577	10069.12
631.922	9848.21
632.268	9272.37
632.614	8939.76
632.96	8376.33
633.306	8058.62
633.651	7517.52
633.997	7239.52
634.343	6775.37
634.688	6398.09
635.034	5847.06
635.379	5531.83
635.725	5114.84
636.07	4854.22
636.415	4392.55
636.761	4206.39
637.106	3804.29
637.451	3749.68
637.796	3436.94
638.141	3176.32
638.486	2972.79
638.831	2816.41
639.176	2565.72
639.521	2478.85
639.866	2315.03
640.211	2297.65
640.555	2039.51
640.9	2029.59
641.245	1979.94
641.589	1773.93
641.934	1667.2
642.278	1632.45
642.623	1508.34
642.967	1483.52
643.312	1394.17
643.656	1351.97
644	1364.38
644.344	1317.22
644.689	1279.99
645.033	1150.92
645.377	1049.15
645.721	1051.64
646.065	1001.99
646.409	930.01
646.753	939.94
647.096	892.78
647.44	830.73
647.784	825.77
648.128	773.64
648.471	768.68
648.815	756.27
649.158	773.64
649.502	731.45
649.845	726.48
650.189	699.18
650.532	622.23
650.875	607.34
651.218	535.36
651.562	587.48
651.905	594.93
652.248	565.14
652.591	532.88
652.934	508.06
653.277	537.84
653.62	547.77
653.963	547.77
654.305	480.75
654.648	517.98
654.991	587.48
655.334	522.95
655.676	517.98
656.019	535.36
656.361	448.49
656.704	448.49
657.046	475.79
657.389	488.2
657.731	483.23
658.073	458.41
658.415	418.7
658.757	453.45
659.1	503.09
659.442	436.07
659.784	428.63
660.126	374.02
660.468	455.93
660.809	465.86
661.151	433.59
661.493	428.63
661.835	480.75
662.177	468.34
662.518	438.56
662.86	446
663.201	398.84
663.543	366.58
663.884	374.02
664.226	398.84
664.567	458.41
664.908	388.91
665.249	403.81
665.591	406.29
665.932	408.77
666.273	428.63
666.614	443.52
666.955	376.5
667.296	413.74
667.637	388.91
667.978	458.41
668.318	426.15
668.659	428.63
669	436.07
669.341	413.74
669.681	453.45
670.022	478.27
670.362	423.66
670.703	428.63
671.043	386.43
671.383	421.18
671.724	458.41
672.064	336.79
672.404	354.17
672.744	443.52
673.085	436.07
673.425	438.56
673.765	344.24
674.105	391.4
674.444	406.29
674.784	453.45
675.124	413.74
675.464	376.5
675.804	411.25
676.143	388.91
676.483	446
676.823	391.4
677.162	522.95
677.501	406.29
677.841	438.56
678.18	354.17
678.52	396.36
678.859	366.58
679.198	398.84
679.537	378.99
679.876	366.58
680.215	383.95
680.555	369.06
680.894	374.02
681.232	428.63
681.571	364.09
681.91	386.43
682.249	378.99
682.588	336.79
682.926	369.06
683.265	396.36
683.604	374.02
683.942	398.84
684.281	378.99
684.619	433.59
684.957	369.06
685.296	351.68
685.634	378.99
685.972	369.06
686.31	366.58
686.649	383.95
686.987	366.58
687.325	438.56
687.663	403.81
688.001	418.7
688.338	480.75
688.676	374.02
689.014	403.81
689.352	421.18
689.69	448.49
690.027	441.04
690.365	376.5
690.702	406.29
691.04	411.25
691.377	329.34
691.715	376.5
692.052	388.91
692.389	349.2
692.726	431.11
693.064	433.59
693.401	359.13
693.738	403.81
694.075	393.88
694.412	446
694.749	366.58
695.086	329.34
695.423	356.65
695.759	361.61
696.096	359.13
696.433	413.74
696.769	378.99
697.106	383.95
697.443	436.07
697.779	374.02
698.116	416.22
698.452	428.63
698.788	336.79
699.125	359.13
699.461	311.97
699.797	299.56
700.133	364.09
700.469	433.59
700.805	369.06
701.141	396.36
701.477	388.91
701.813	366.58
702.149	381.47
702.485	374.02
702.82	309.49
703.156	413.74
703.492	378.99
703.827	381.47
704.163	391.4
704.498	374.02
704.834	421.18
705.169	453.45
705.505	381.47
705.84	326.86
706.175	391.4
706.51	396.36
706.845	460.9
707.18	307.01
707.515	354.17
707.85	446
708.185	378.99
708.52	401.33
708.855	284.67
709.19	386.43
709.525	393.88
709.859	463.38
710.194	376.5
710.529	376.5
710.863	393.88
711.198	331.83
711.532	366.58
711.866	443.52
712.201	378.99
712.535	346.72
712.869	386.43
713.203	403.81
713.537	386.43
713.872	393.88
714.206	334.31
714.54	393.88
714.873	421.18
715.207	344.24
715.541	406.29
715.875	326.86
716.209	450.97
716.542	426.15
716.876	376.5
717.21	438.56
717.543	378.99
717.877	361.61
718.21	359.13
718.543	403.81
718.877	428.63
719.21	398.84
719.543	381.47
719.876	249.92
720.209	371.54
720.542	374.02
720.875	388.91
721.208	431.11
721.541	448.49
721.874	391.4
722.207	366.58
722.54	408.77
722.872	351.68
723.205	403.81
723.538	396.36
723.87	378.99
724.203	438.56
724.535	361.61
724.868	406.29
725.2	324.38
725.532	359.13
725.865	383.95
726.197	431.11
726.529	448.49
726.861	366.58
727.193	378.99
727.525	431.11
727.857	356.65
728.189	438.56
728.521	468.34
728.853	393.88
729.184	401.33
729.516	463.38
729.848	408.77
730.179	339.27
730.511	361.61
730.842	426.15
731.174	331.83
731.505	334.31
731.836	284.67
732.168	376.5
732.499	364.09
732.83	421.18
733.161	341.75
733.492	446
733.823	349.2
734.154	391.4
734.485	450.97
734.816	411.25
735.147	359.13
735.478	339.27
735.808	381.47
736.139	401.33
736.47	421.18
736.8	403.81
737.131	334.31
737.461	431.11
737.792	376.5
738.122	356.65
738.452	470.82
738.782	336.79
739.113	391.4
739.443	453.45
739.773	388.91
740.103	356.65
740.433	374.02
740.763	411.25
741.093	361.61
741.423	398.84
741.752	354.17
742.082	401.33
742.412	411.25
742.742	371.54
743.071	408.77
743.401	421.18
743.73	351.68
744.06	386.43
744.389	396.36
744.718	369.06
745.048	381.47
745.377	302.04
745.706	398.84
746.035	458.41
746.364	393.88
746.693	396.36
747.022	356.65
747.351	393.88
747.68	438.56
748.009	401.33
748.338	354.17
748.666	364.09
748.995	336.79
749.323	388.91
749.652	421.18
749.981	366.58
750.309	411.25
750.637	408.77
750.966	388.91
751.294	396.36
751.622	374.02
751.95	421.18
752.279	344.24
752.607	383.95
752.935	388.91
753.263	441.04
753.591	426.15
753.919	297.08
754.246	386.43
754.574	388.91
754.902	446
755.23	314.45
755.557	398.84
755.885	403.81
756.212	433.59
756.54	443.52
756.867	406.29
757.195	428.63
757.522	431.11
757.849	311.97
758.176	396.36
758.503	403.81
758.831	324.38
759.158	401.33
759.485	391.4
759.812	319.42
760.138	321.9
760.465	416.22
760.792	441.04
761.119	376.5
761.446	403.81
761.772	396.36
762.099	349.2
762.425	351.68
762.752	388.91
763.078	321.9
763.405	339.27
763.731	334.31
764.057	331.83
764.383	374.02
764.71	426.15
765.036	403.81
765.362	426.15
765.688	386.43
766.014	376.5
766.34	324.38
766.665	406.29
766.991	443.52
767.317	329.34
767.643	374.02
767.968	401.33
768.294	383.95
768.619	371.54
768.945	334.31
769.27	356.65
769.596	326.86
769.921	316.93
770.246	421.18
770.572	411.25
770.897	393.88
771.222	359.13
771.547	443.52
771.872	391.4
772.197	436.07
772.522	431.11
772.847	398.84
773.171	391.4
773.496	381.47
773.821	319.42
774.146	411.25
774.47	364.09
774.795	431.11
775.119	446
775.444	393.88
775.768	446
776.092	475.79
776.417	431.11
